LHD, Rax=3.75m (case1)

rho	n(10^19m-3)	dn/dr	Ln	R/Ln	Te(keV)	dTe/dr	LTe	R/LTe	Ti(kev)	dTi/dr	LTi	R/LTi
0.0100000	1.2563	-0.0098654	127.34	0.029448	3.3822	-0.059481	56.863	0.065948	3.8637	-0.16381	23.587	0.15903
0.020000	1.2562	-0.019674	63.849	0.058732	3.3817	-0.11903	28.412	0.13199	3.8622	-0.32753	11.792	0.31810
0.030000	1.2560	-0.029370	42.765	0.087688	3.3808	-0.17870	18.919	0.19821	3.8598	-0.49107	7.8599	0.47724
0.040000	1.2558	-0.038897	32.286	0.11615	3.3795	-0.23856	14.166	0.26471	3.8564	-0.65435	5.8934	0.63649
0.050000	1.2556	-0.048200	26.049	0.14396	3.3779	-0.29868	11.310	0.33158	3.8520	-0.81729	4.7131	0.79588
0.060000	1.2553	-0.057224	21.936	0.17095	3.3760	-0.35911	9.4009	0.39890	3.8466	-0.97978	3.9260	0.95545
0.070000	1.2549	-0.065914	19.038	0.19697	3.3736	-0.41992	8.0339	0.46677	3.8403	-1.1418	3.3635	1.1152
0.080000	1.2545	-0.074219	16.902	0.22186	3.3709	-0.48118	7.0056	0.53529	3.8330	-1.3031	2.9414	1.2753
0.090000	1.2540	-0.082085	15.277	0.24547	3.3678	-0.54293	6.2031	0.60454	3.8247	-1.4638	2.6129	1.4356
0.10000	1.2535	-0.089463	14.011	0.26764	3.3644	-0.60525	5.5587	0.67462	3.8155	-1.6237	2.3499	1.5963
0.11000	1.2529	-0.096304	13.010	0.28824	3.3606	-0.66819	5.0294	0.74562	3.8053	-1.7827	2.1346	1.7573
0.12000	1.2523	-0.10256	12.211	0.30711	3.3564	-0.73180	4.5864	0.81763	3.7942	-1.9407	1.9550	1.9187
0.13000	1.2517	-0.10819	11.570	0.32412	3.3518	-0.79616	4.2100	0.89074	3.7821	-2.0978	1.8029	2.0806
0.14000	1.2510	-0.11314	11.057	0.33914	3.3468	-0.86130	3.8858	0.96506	3.7691	-2.2537	1.6724	2.2429
0.15000	1.2504	-0.11738	10.652	0.35204	3.3415	-0.92729	3.6035	1.0407	3.7552	-2.4083	1.5592	2.4057
0.16000	1.2496	-0.12087	10.339	0.36271	3.3357	-0.99418	3.3552	1.1177	3.7403	-2.5617	1.4601	2.5691
0.17000	1.2489	-0.12357	10.107	0.37102	3.3295	-1.0620	3.1351	1.1961	3.7245	-2.7138	1.3725	2.7331
0.18000	1.2482	-0.12544	9.9501	0.37688	3.3229	-1.1309	2.9384	1.2762	3.7079	-2.8643	1.2945	2.8977
0.19000	1.2474	-0.12647	9.8637	0.38018	3.3160	-1.2007	2.7616	1.3579	3.6903	-3.0134	1.2247	3.0630
0.20000	1.2467	-0.12661	9.8466	0.38084	3.3085	-1.2717	2.6016	1.4414	3.6719	-3.1608	1.1617	3.2290
0.21000	1.2459	-0.12585	9.9003	0.37878	3.3007	-1.3438	2.4562	1.5268	3.6525	-3.3065	1.1047	3.3957
0.22000	1.2452	-0.12416	10.029	0.37392	3.2924	-1.4171	2.3233	1.6141	3.6324	-3.4504	1.0527	3.5632
0.23000	1.2444	-0.12153	10.240	0.36621	3.2837	-1.4917	2.2014	1.7035	3.6113	-3.5925	1.0052	3.7315
0.24000	1.2437	-0.11794	10.545	0.35561	3.2745	-1.5674	2.0891	1.7950	3.5894	-3.7326	0.96164	3.9007
0.25000	1.2430	-0.11339	10.963	0.34207	3.2649	-1.6445	1.9853	1.8889	3.5667	-3.8707	0.92145	4.0708
0.26000	1.2424	-0.10786	11.518	0.32557	3.2548	-1.7229	1.8891	1.9850	3.5432	-4.0068	0.88429	4.2419
0.27000	1.2417	-0.10136	12.251	0.30610	3.2442	-1.8026	1.7997	2.0837	3.5188	-4.1406	0.84982	4.4140
0.28000	1.2411	-0.093890	13.219	0.28368	3.2331	-1.8838	1.7163	2.1849	3.4937	-4.2723	0.81776	4.5870
0.29000	1.2406	-0.085458	14.517	0.25831	3.2216	-1.9663	1.6384	2.2888	3.4678	-4.4016	0.78784	4.7612
0.30000	1.2401	-0.076075	16.301	0.23004	3.2095	-2.0503	1.5654	2.3955	3.4411	-4.5285	0.75987	4.9365
0.31000	1.2397	-0.065759	18.852	0.19892	3.1970	-2.1357	1.4969	2.5051	3.4136	-4.6530	0.73364	5.1130
0.32000	1.2393	-0.054532	22.727	0.16500	3.1839	-2.2226	1.4325	2.6178	3.3855	-4.7750	0.70900	5.2906
0.33000	1.2391	-0.042422	29.208	0.12839	3.1703	-2.3109	1.3719	2.7335	3.3566	-4.8943	0.68581	5.4696
0.34000	1.2388	-0.029462	42.049	0.089182	3.1562	-2.4008	1.3146	2.8525	3.3270	-5.0110	0.66393	5.6498
0.35000	1.2387	-0.015690	78.948	0.047500	3.1415	-2.4921	1.2606	2.9748	3.2967	-5.1250	0.64325	5.8314
0.36000	1.2387	-0.0011511	1076.0	0.0034851	3.1263	-2.5849	1.2094	3.1007	3.2657	-5.2362	0.62368	6.0144
0.37000	1.2387	0.014105	-87.821	-0.042700	3.1105	-2.6793	1.1609	3.2301	3.2341	-5.3445	0.60513	6.1988
0.38000	1.2388	0.030021	-41.265	-0.090875	3.0941	-2.7751	1.1150	3.3633	3.2019	-5.4499	0.58750	6.3848
0.39000	1.2390	0.046535	-26.626	-0.14084	3.0772	-2.8723	1.0713	3.5004	3.1690	-5.5523	0.57075	6.5722
0.40000	1.2394	0.063577	-19.494	-0.19237	3.0596	-2.9711	1.0298	3.6415	3.1355	-5.6517	0.55478	6.7613
0.41000	1.2398	0.081073	-15.293	-0.24522	3.0415	-3.0713	0.99031	3.7867	3.1014	-5.7480	0.53956	6.9521
0.42000	1.2403	0.098938	-12.537	-0.29912	3.0228	-3.1729	0.95269	3.9362	3.0668	-5.8412	0.52503	7.1445
0.43000	1.2410	0.11708	-10.599	-0.35380	3.0034	-3.2759	0.91683	4.0902	3.0316	-5.9311	0.51114	7.3387
0.44000	1.2417	0.13542	-9.1699	-0.40895	2.9835	-3.3803	0.88261	4.2488	2.9959	-6.0178	0.49784	7.5346
0.45000	1.2426	0.15383	-8.0780	-0.46422	2.9629	-3.4860	0.84993	4.4121	2.9597	-6.1011	0.48511	7.7325
0.46000	1.2436	0.17221	-7.2215	-0.51928	2.9416	-3.5930	0.81871	4.5804	2.9230	-6.1811	0.47289	7.9322
0.47000	1.2447	0.19043	-6.5359	-0.57375	2.9197	-3.7013	0.78884	4.7538	2.8858	-6.2577	0.46116	8.1339
0.48000	1.2459	0.20839	-5.9786	-0.62724	2.8972	-3.8108	0.76027	4.9325	2.8482	-6.3308	0.44990	8.3376
0.49000	1.2472	0.22593	-5.5202	-0.67933	2.8740	-3.9214	0.73290	5.1166	2.8102	-6.4005	0.43906	8.5435
0.50000	1.2486	0.24291	-5.1399	-0.72958	2.8502	-4.0331	0.70668	5.3065	2.7717	-6.4665	0.42863	8.7514
0.51000	1.2501	0.25919	-4.8229	-0.77754	2.8256	-4.1459	0.68154	5.5022	2.7329	-6.5290	0.41858	8.9615
0.52000	1.2517	0.27461	-4.5580	-0.82273	2.8004	-4.2596	0.65743	5.7040	2.6937	-6.5879	0.40889	9.1739
0.53000	1.2533	0.28899	-4.3370	-0.86465	2.7745	-4.3742	0.63428	5.9122	2.6542	-6.6431	0.39954	9.3886
0.54000	1.2551	0.30216	-4.1538	-0.90278	2.7479	-4.4897	0.61205	6.1269	2.6143	-6.6946	0.39051	9.6056
0.55000	1.2569	0.31393	-4.0039	-0.93658	2.7206	-4.6058	0.59069	6.3485	2.5742	-6.7424	0.38179	9.8250
0.56000	1.2589	0.32411	-3.8841	-0.96547	2.6926	-4.7226	0.57016	6.5771	2.5337	-6.7864	0.37336	10.047
0.57000	1.2608	0.33249	-3.7921	-0.98891	2.6640	-4.8399	0.55041	6.8131	2.4931	-6.8266	0.36520	10.271
0.58000	1.2628	0.33886	-3.7267	-1.0063	2.6346	-4.9577	0.53141	7.0567	2.4521	-6.8630	0.35730	10.498
0.59000	1.2649	0.34299	-3.6877	-1.0169	2.6045	-5.0758	0.51311	7.3083	2.4110	-6.8956	0.34965	10.728
0.60000	1.2669	0.34466	-3.6758	-1.0202	2.5736	-5.1941	0.49550	7.5682	2.3697	-6.9242	0.34224	10.960
0.61000	1.2690	0.34361	-3.6930	-1.0154	2.5421	-5.3125	0.47852	7.8367	2.3283	-6.9490	0.33505	11.196
0.62000	1.2710	0.33960	-3.7427	-1.0020	2.5099	-5.4309	0.46215	8.1142	2.2867	-6.9699	0.32808	11.433
0.63000	1.2730	0.33236	-3.8303	-0.97903	2.4770	-5.5491	0.44637	8.4011	2.2450	-6.9869	0.32131	11.674
0.64000	1.2750	0.32161	-3.9644	-0.94592	2.4433	-5.6670	0.43114	8.6978	2.2032	-6.9999	0.31475	11.918
0.65000	1.2769	0.30707	-4.1582	-0.90183	2.4090	-5.7845	0.41645	9.0047	2.1613	-7.0090	0.30836	12.164
0.66000	1.2786	0.28844	-4.4329	-0.84594	2.3739	-5.9014	0.40226	9.3223	2.1194	-7.0141	0.30217	12.414
0.67000	1.2803	0.26542	-4.8237	-0.77742	2.3381	-6.0175	0.38855	9.6512	2.0775	-7.0153	0.29614	12.667
0.68000	1.2818	0.23769	-5.3928	-0.69537	2.3017	-6.1327	0.37531	9.9917	2.0356	-7.0125	0.29028	12.922
0.69000	1.2831	0.20491	-6.2619	-0.59886	2.2645	-6.2469	0.36251	10.345	1.9937	-7.0058	0.28458	13.181
0.70000	1.2843	0.16675	-7.7015	-0.48692	2.2267	-6.3597	0.35013	10.710	1.9519	-6.9950	0.27904	13.443
0.71000	1.2851	0.12286	-10.460	-0.35850	2.1882	-6.4711	0.33815	11.090	1.9101	-6.9803	0.27364	13.708
0.72000	1.2857	0.072858	-17.647	-0.21250	2.1491	-6.5808	0.32657	11.483	1.8684	-6.9617	0.26839	13.976
0.73000	1.2860	0.016381	-78.502	-0.047769	2.1093	-6.6887	0.31535	11.892	1.8269	-6.9391	0.26328	14.248
0.74000	1.2859	-0.046963	27.381	0.13696	2.0688	-6.7946	0.30448	12.316	1.7855	-6.9126	0.25830	14.522
0.75000	1.2854	-0.11758	10.932	0.34302	2.0277	-6.8981	0.29396	12.757	1.7443	-6.8821	0.25345	14.800
0.76000	1.2845	-0.19587	6.5576	0.57186	1.9860	-6.9992	0.28375	13.216	1.7033	-6.8478	0.24873	15.081
0.77000	1.2830	-0.28228	4.5452	0.82504	1.9438	-7.0975	0.27387	13.693	1.6625	-6.8096	0.24414	15.365
0.78000	1.2811	-0.37724	3.3959	1.1043	1.9009	-7.1928	0.26427	14.190	1.6219	-6.7675	0.23966	15.652
0.79000	1.2785	-0.48120	2.6569	1.4114	1.8574	-7.2850	0.25497	14.708	1.5816	-6.7216	0.23530	15.942
0.80000	1.2753	-0.59463	2.1447	1.7485	1.8135	-7.3736	0.24594	15.248	1.5416	-6.6718	0.23105	16.235

